 Ta Density=16.654 Thickness=0.5 microns
 Wavelength (nm), Transmission
   0.10000      0.84066    
   0.10280      0.83064    
   0.10560      0.82044    
   0.10840      0.82750    
   0.11120      0.81563    
   0.11400      0.85596    
   0.11680      0.84651    
   0.11960      0.83675    
   0.12240      0.82668    
   0.12520      0.81630    
   0.12800      0.92144    
   0.13080      0.91712    
   0.13360      0.91268    
   0.13640      0.90812    
   0.13920      0.90343    
   0.14200      0.89862    
   0.14480      0.89369    
   0.14760      0.88863    
   0.15040      0.88346    
   0.15320      0.87817    
   0.15600      0.87276    
   0.15880      0.86723    
   0.16160      0.86159    
   0.16440      0.85584    
   0.16720      0.84996    
   0.17000      0.84398    
   0.17280      0.83790    
   0.17560      0.83170    
   0.17840      0.82540    
   0.18120      0.81900    
   0.18400      0.81249    
   0.18680      0.80588    
   0.18960      0.79918    
   0.19240      0.79239    
   0.19520      0.78550    
   0.19800      0.77853    
   0.20080      0.77147    
   0.20360      0.76432    
   0.20640      0.75709    
   0.20920      0.74978    
   0.21200      0.74240    
   0.21480      0.73495    
   0.21760      0.72743    
   0.22040      0.71984    
   0.22320      0.71219    
   0.22600      0.70448    
   0.22880      0.69671    
   0.23160      0.68889    
   0.23440      0.68101    
   0.23720      0.67309    
   0.24000      0.66513    
   0.24280      0.65712    
   0.24560      0.64907    
   0.24840      0.64099    
   0.25120      0.63289    
   0.25400      0.62475    
   0.25680      0.61659    
   0.25960      0.60841    
   0.26240      0.60021    
   0.26520      0.59199    
   0.26800      0.58377    
   0.27080      0.57554    
   0.27360      0.56730    
   0.27640      0.55907    
   0.27920      0.55083    
   0.28200      0.54260    
   0.28480      0.53437    
   0.28760      0.52616    
   0.29040      0.51797    
   0.29320      0.50979    
   0.29600      0.50164    
   0.29880      0.49350    
   0.30160      0.48540    
   0.30440      0.47732    
   0.30720      0.46928    
   0.31000      0.46127    
   0.31280      0.45330    
   0.31560      0.44537    
   0.31840      0.43749    
   0.32120      0.42965    
   0.32400      0.42186    
   0.32680      0.41412    
   0.32960      0.40644    
   0.33240      0.39880    
   0.33520      0.39123    
   0.33800      0.38372    
   0.34080      0.37627    
   0.34360      0.36888    
   0.34640      0.36156    
   0.34920      0.35431    
   0.35200      0.34713    
   0.35480      0.34002    
   0.35760      0.33299    
   0.36040      0.32603    
   0.36320      0.31915    
   0.36600      0.31234    
   0.36880      0.30562    
   0.37160      0.29898    
   0.37440      0.29242    
   0.37720      0.28594    
   0.38000      0.27955    
   0.38280      0.27324    
   0.38560      0.26701    
   0.38840      0.26088    
   0.39120      0.25483    
   0.39400      0.24887    
   0.39680      0.24299    
   0.39960      0.23722    
   0.40240      0.23152    
   0.40520      0.22592    
   0.40800      0.22042    
   0.41080      0.21500    
   0.41360      0.20967    
   0.41640      0.20442    
   0.41920      0.19928    
   0.42200      0.19423    
   0.42480      0.18926    
   0.42760      0.18439    
   0.43040      0.17960    
   0.43320      0.17492    
   0.43600      0.17031    
   0.43880      0.16580    
   0.44160      0.16138    
   0.44440      0.15704    
   0.44720      0.15280    
   0.45000      0.14864    
   0.45280      0.14456    
   0.45560      0.14056    
   0.45840      0.14753    
   0.46120      0.14322    
   0.46400      0.13901    
   0.46680      0.13488    
   0.46960      0.13084    
   0.47240      0.12689    
   0.47520      0.12301    
   0.47800      0.11923    
   0.48080      0.11552    
   0.48360      0.11190    
   0.48640      0.10836    
   0.48920      0.10491    
   0.49200      0.10153    
   0.49480      0.98240E-01
   0.49760      0.95027E-01
   0.50040      0.91892E-01
   0.50320      0.10356    
   0.50600      0.10025    
   0.50880      0.97022E-01
   0.51160      0.93868E-01
   0.51440      0.90790E-01
   0.51720      0.87787E-01
   0.52000      0.84860E-01
   0.52280      0.82007E-01
   0.52560      0.79229E-01
   0.52840      0.76523E-01
   0.53120      0.73887E-01
   0.53400      0.71320E-01
   0.53680      0.68822E-01
   0.53960      0.66392E-01
   0.54240      0.64028E-01
   0.54520      0.61731E-01
   0.54800      0.59498E-01
   0.55080      0.57330E-01
   0.55360      0.55225E-01
   0.55640      0.53181E-01
   0.55920      0.51197E-01
   0.56200      0.49272E-01
   0.56480      0.47406E-01
   0.56760      0.71132E-01
   0.57040      0.68888E-01
   0.57320      0.66700E-01
   0.57600      0.64566E-01
   0.57880      0.62486E-01
   0.58160      0.60459E-01
   0.58440      0.58484E-01
   0.58720      0.56559E-01
   0.59000      0.54685E-01
   0.59280      0.52861E-01
   0.59560      0.51087E-01
   0.59840      0.49361E-01
   0.60120      0.47682E-01
   0.60400      0.46049E-01
   0.60680      0.44462E-01
   0.60960      0.42919E-01
   0.61240      0.41421E-01
   0.61520      0.39974E-01
   0.61800      0.38568E-01
   0.62080      0.37203E-01
   0.62360      0.35874E-01
   0.62640      0.34580E-01
   0.62920      0.33326E-01
   0.63200      0.32109E-01
   0.63480      0.30929E-01
   0.63760      0.29786E-01
   0.64040      0.28678E-01
   0.64320      0.27604E-01
   0.64600      0.26564E-01
   0.64880      0.25558E-01
   0.65160      0.24583E-01
   0.65440      0.23640E-01
   0.65720      0.22728E-01
   0.66000      0.21846E-01
   0.66280      0.20993E-01
   0.66560      0.20169E-01
   0.66840      0.19372E-01
   0.67120      0.18602E-01
   0.67400      0.17858E-01
   0.67680      0.17947E-01
   0.67960      0.18060E-01
   0.68240      0.18174E-01
   0.68520      0.18610E-01
   0.68800      0.23269E-01
   0.69080      0.28708E-01
   0.69360      0.34979E-01
   0.69640      0.42122E-01
   0.69920      0.50171E-01
   0.70200      0.59146E-01
   0.70480      0.69057E-01
   0.70760      0.79901E-01
   0.71040      0.91662E-01
   0.71320      0.10432    
   0.71600      0.36933    
   0.71880      0.36620    
   0.72160      0.36309    
   0.72440      0.35999    
   0.72720      0.35690    
   0.73000      0.35383    
   0.73280      0.35077    
   0.73560      0.34773    
   0.73840      0.34469    
   0.74120      0.34168    
   0.74400      0.33867    
   0.74680      0.33568    
   0.74960      0.33270    
   0.75240      0.32974    
   0.75520      0.32679    
   0.75800      0.32386    
   0.76080      0.32093    
   0.76360      0.31802    
   0.76640      0.31513    
   0.76920      0.31225    
   0.77200      0.30939    
   0.77480      0.30653    
   0.77760      0.30370    
   0.78040      0.30088    
   0.78320      0.29807    
   0.78600      0.29528    
   0.78880      0.29250    
   0.79160      0.28974    
   0.79440      0.28699    
   0.79720      0.28426    
   0.80000      0.28154    
   0.80280      0.27884    
   0.80560      0.27616    
   0.80840      0.27348    
   0.81120      0.27083    
   0.81400      0.26819    
   0.81680      0.26556    
   0.81960      0.26295    
   0.82240      0.26036    
   0.82520      0.25779    
   0.82800      0.25523    
   0.83080      0.25269    
   0.83360      0.25019    
   0.83640      0.24770    
   0.83920      0.24523    
   0.84200      0.24278    
   0.84480      0.24034    
   0.84760      0.23792    
   0.85040      0.23552    
   0.85320      0.23313    
   0.85600      0.23076    
   0.85880      0.22840    
   0.86160      0.22607    
   0.86440      0.22374    
   0.86720      0.22143    
   0.87000      0.21914    
   0.87280      0.21687    
   0.87560      0.21461    
   0.87840      0.21237    
   0.88120      0.21014    
   0.88400      0.20793    
   0.88680      0.20574    
   0.88960      0.20356    
   0.89240      0.20139    
   0.89520      0.19925    
   0.89800      0.19711    
   0.90080      0.19499    
   0.90360      0.19289    
   0.90640      0.19080    
   0.90920      0.18873    
   0.91200      0.18668    
   0.91480      0.18463    
   0.91760      0.18261    
   0.92040      0.18060    
   0.92320      0.17861    
   0.92600      0.17663    
   0.92880      0.17467    
   0.93160      0.17272    
   0.93440      0.17079    
   0.93720      0.16887    
   0.94000      0.16697    
   0.94280      0.16508    
   0.94560      0.16321    
   0.94840      0.16135    
   0.95120      0.15951    
   0.95400      0.15769    
   0.95680      0.15587    
   0.95960      0.15408    
   0.96240      0.15230    
   0.96520      0.15053    
   0.96800      0.14878    
   0.97080      0.14705    
   0.97360      0.14533    
   0.97640      0.14364    
   0.97920      0.14197    
   0.98200      0.14033    
   0.98480      0.13869    
   0.98760      0.13707    
   0.99040      0.13547    
   0.99320      0.13389    
   0.99600      0.13234    
   0.99880      0.13079    
    1.0016      0.12926    
    1.0044      0.12775    
    1.0072      0.12625    
    1.0100      0.12478    
    1.0128      0.12332    
    1.0156      0.12188    
    1.0184      0.12045    
    1.0212      0.11903    
    1.0240      0.11763    
    1.0268      0.11624    
    1.0296      0.11486    
    1.0324      0.11349    
    1.0352      0.11214    
    1.0380      0.11079    
    1.0408      0.10946    
    1.0436      0.10815    
    1.0464      0.10684    
    1.0492      0.10555    
    1.0520      0.10427    
    1.0548      0.10300    
    1.0576      0.10174    
    1.0604      0.10050    
    1.0632      0.99267E-01
    1.0660      0.98048E-01
    1.0688      0.96840E-01
    1.0716      0.95644E-01
    1.0744      0.94459E-01
    1.0772      0.93287E-01
    1.0800      0.92125E-01
    1.0828      0.90976E-01
    1.0856      0.89837E-01
    1.0884      0.88710E-01
    1.0912      0.87594E-01
    1.0940      0.86490E-01
    1.0968      0.85396E-01
    1.0996      0.84314E-01
    1.1024      0.83242E-01
    1.1052      0.82182E-01
    1.1080      0.81132E-01
    1.1108      0.80093E-01
    1.1136      0.79064E-01
    1.1164      0.78047E-01
    1.1192      0.77040E-01
    1.1220      0.76043E-01
    1.1248      0.75057E-01
    1.1276      0.74081E-01
    1.1304      0.73116E-01
    1.1332      0.72160E-01
    1.1360      0.71215E-01
    1.1388      0.70280E-01
    1.1416      0.69355E-01
    1.1444      0.68440E-01
    1.1472      0.67535E-01
    1.1500      0.66639E-01
    1.1528      0.65754E-01
    1.1556      0.64878E-01
    1.1584      0.64011E-01
    1.1612      0.63154E-01
    1.1640      0.62306E-01
    1.1668      0.61468E-01
    1.1696      0.60639E-01
    1.1724      0.59820E-01
    1.1752      0.59009E-01
    1.1780      0.58208E-01
    1.1808      0.57415E-01
    1.1836      0.56635E-01
    1.1864      0.55867E-01
    1.1892      0.55107E-01
    1.1920      0.54355E-01
    1.1948      0.53612E-01
    1.1976      0.52878E-01
    1.2004      0.52152E-01
    1.2032      0.51438E-01
    1.2060      0.50733E-01
    1.2088      0.50036E-01
    1.2116      0.49348E-01
    1.2144      0.48667E-01
    1.2172      0.47994E-01
    1.2200      0.47329E-01
    1.2228      0.46685E-01
    1.2256      0.46050E-01
    1.2284      0.45422E-01
    1.2312      0.44802E-01
    1.2340      0.44189E-01
    1.2368      0.43583E-01
    1.2396      0.42984E-01
    1.2424      0.42393E-01
    1.2452      0.41809E-01
    1.2480      0.41232E-01
    1.2508      0.40662E-01
    1.2536      0.40099E-01
    1.2564      0.39542E-01
    1.2592      0.38992E-01
    1.2620      0.38449E-01
    1.2648      0.37914E-01
    1.2676      0.37384E-01
    1.2704      0.36861E-01
    1.2732      0.36345E-01
    1.2760      0.35834E-01
    1.2788      0.35330E-01
    1.2816      0.34831E-01
    1.2844      0.34339E-01
    1.2872      0.33853E-01
    1.2900      0.33372E-01
    1.2928      0.32898E-01
    1.2956      0.32429E-01
    1.2984      0.31966E-01
    1.3012      0.31509E-01
    1.3040      0.31061E-01
    1.3068      0.30618E-01
    1.3096      0.30181E-01
    1.3124      0.29750E-01
    1.3152      0.29324E-01
    1.3180      0.28903E-01
    1.3208      0.28487E-01
    1.3236      0.28078E-01
    1.3264      0.27676E-01
    1.3292      0.27280E-01
    1.3320      0.26888E-01
    1.3348      0.26501E-01
    1.3376      0.26120E-01
    1.3404      0.25742E-01
    1.3432      0.25370E-01
    1.3460      0.25012E-01
    1.3488      0.24662E-01
    1.3516      0.24316E-01
    1.3544      0.23975E-01
    1.3572      0.23637E-01
    1.3600      0.23304E-01
    1.3628      0.22975E-01
    1.3656      0.22650E-01
    1.3684      0.22329E-01
    1.3712      0.22012E-01
    1.3740      0.21699E-01
    1.3768      0.21390E-01
    1.3796      0.21084E-01
    1.3824      0.20783E-01
    1.3852      0.20486E-01
    1.3880      0.20192E-01
    1.3908      0.19902E-01
    1.3936      0.19615E-01
    1.3964      0.19333E-01
    1.3992      0.19054E-01
    1.4020      0.18778E-01
    1.4048      0.18506E-01
    1.4076      0.18238E-01
    1.4104      0.17973E-01
    1.4132      0.17711E-01
    1.4160      0.17453E-01
    1.4188      0.17198E-01
    1.4216      0.16947E-01
    1.4244      0.16699E-01
    1.4272      0.16454E-01
    1.4300      0.16212E-01
    1.4328      0.15973E-01
    1.4356      0.15740E-01
    1.4384      0.15509E-01
    1.4412      0.15281E-01
    1.4440      0.15057E-01
    1.4468      0.14835E-01
    1.4496      0.14617E-01
    1.4524      0.14401E-01
    1.4552      0.14188E-01
    1.4580      0.13979E-01
    1.4608      0.13773E-01
    1.4636      0.13571E-01
    1.4664      0.13370E-01
    1.4692      0.13173E-01
    1.4720      0.12978E-01
    1.4748      0.12786E-01
    1.4776      0.12596E-01
    1.4804      0.12409E-01
    1.4832      0.12226E-01
    1.4860      0.12045E-01
    1.4888      0.11867E-01
    1.4916      0.11691E-01
    1.4944      0.11518E-01
    1.4972      0.11346E-01
    1.5000      0.11177E-01